   Energy Intensity
   400.00    0.28
   402.00    0.29
   404.00    0.30
   406.00    0.32
   408.00    0.33
   410.00    0.35
   412.00    0.37
   414.00    0.39
   416.00    0.42
   418.00    0.45
   420.00    0.48
   422.00    0.52
   424.00    0.57
   426.00    0.62
   428.00    0.68
   430.00    0.75
   432.00    0.83
   434.00    0.93
   436.00    1.06
   438.00    1.20
   440.00    1.38
   442.00    1.60
   444.00    1.87
   446.00    2.18
   448.00    2.55
   450.00    2.98
   452.00    3.45
   454.00    3.97
   456.00    4.56
   458.00    5.23
   460.00    5.96
   462.00    6.63
   464.00    7.02
   466.00    6.95
   468.00    6.41
   470.00    5.60
   472.00    4.72
   474.00    3.91
   476.00    3.23
   478.00    2.68
   480.00    2.25
   482.00    1.91
   484.00    1.63
   486.00    1.41
   488.00    1.24
   490.00    1.10
   492.00    0.98
   494.00    0.88
   496.00    0.80
   498.00    0.73
   500.00    0.68
   502.00    0.63
   504.00    0.59
   506.00    0.55
   508.00    0.52
   510.00    0.49
   512.00    0.47
   514.00    0.46
   516.00    0.44
   518.00    0.43
   520.00    0.42
   522.00    0.42
   524.00    0.42
   526.00    0.42
   528.00    0.43
   530.00    0.44
   532.00    0.45
   534.00    0.46
   536.00    0.46
   538.00    0.46
   540.00    0.46
   542.00    0.46
   544.00    0.46
   546.00    0.45
   548.00    0.43
   550.00    0.41
   552.00    0.39
   554.00    0.37
   556.00    0.36
   558.00    0.34
   560.00    0.34
   562.00    0.33
   564.00    0.33
   566.00    0.32
   568.00    0.32
   570.00    0.32
   572.00    0.32
   574.00    0.32
   576.00    0.32
   578.00    0.33
   580.00    0.33
   582.00    0.33
   584.00    0.34
   586.00    0.34
   588.00    0.35
   590.00    0.35
   592.00    0.36
   594.00    0.37
   596.00    0.37
   598.00    0.38
   600.00    0.39
   602.00    0.40
   604.00    0.41
   606.00    0.42
   608.00    0.43
   610.00    0.45
   612.00    0.46
   614.00    0.47
   616.00    0.49
   618.00    0.51
   620.00    0.53
   622.00    0.55
   624.00    0.57
   626.00    0.59
   628.00    0.62
   630.00    0.65
   632.00    0.68
   634.00    0.71
   636.00    0.75
   638.00    0.79
   640.00    0.83
   642.00    0.88
   644.00    0.93
   646.00    0.99
   648.00    1.06
   650.00    1.14
   652.00    1.22
   654.00    1.32
   656.00    1.43
   658.00    1.56
   660.00    1.70
   662.00    1.88
   664.00    2.08
   666.00    2.31
   668.00    2.59
   670.00    2.93
   672.00    3.34
   674.00    3.84
   676.00    4.45
   678.00    5.23
   680.00    6.20
   682.00    7.43
   684.00    8.97
   686.00   10.89
   688.00   13.15
   690.00   15.62
   692.00   17.87
   694.00   19.26
   696.00   19.28
   698.00   17.91
   700.00   15.69
   702.00   13.26
   704.00   11.02
   706.00    9.14
   708.00    7.63
   710.00    6.43
   712.00    5.50
   714.00    4.76
   716.00    4.18
   718.00    3.73
   720.00    3.36
   722.00    3.08
   724.00    2.85
   726.00    2.67
   728.00    2.53
   730.00    2.43
   732.00    2.36
   734.00    2.32
   736.00    2.30
   738.00    2.31
   740.00    2.34
   742.00    2.39
   744.00    2.48
   746.00    2.59
   748.00    2.74
   750.00    2.93
   752.00    3.17
   754.00    3.46
   756.00    3.82
   758.00    4.28
   760.00    4.85
   762.00    5.56
   764.00    6.46
   766.00    7.60
   768.00    9.05
   770.00   10.87
   772.00   13.08
   774.00   15.62
   776.00   18.20
   778.00   20.26
   780.00   21.15
   782.00   20.56
   784.00   18.81
   786.00   16.58
   788.00   14.44
   790.00   12.71
   792.00   11.45
   794.00   10.63
   796.00   10.12
   798.00    9.70
   800.00    9.18
   802.00    8.44
   804.00    7.51
   806.00    6.54
   808.00    5.64
   810.00    4.87
   812.00    4.23
   814.00    3.72
   816.00    3.31
   818.00    2.97
   820.00    2.71
   822.00    2.49
   824.00    2.31
   826.00    2.17
   828.00    2.06
   830.00    1.97
   832.00    1.90
   834.00    1.85
   836.00    1.82
   838.00    1.81
   840.00    1.82
   842.00    1.84
   844.00    1.89
   846.00    1.96
   848.00    2.06
   850.00    2.20
   852.00    2.37
   854.00    2.58
   856.00    2.82
   858.00    3.08
   860.00    3.32
   862.00    3.53
   864.00    3.71
   866.00    3.90
   868.00    4.16
   870.00    4.54
   872.00    5.07
   874.00    5.79
   876.00    6.72
   878.00    7.88
   880.00    9.19
   882.00   10.52
   884.00   11.60
   886.00   12.23
   888.00   12.41
   890.00   12.31
   892.00   12.04
   894.00   11.56
   896.00   10.75
   898.00    9.62
   900.00    8.33
   902.00    7.07
   904.00    5.96
   906.00    5.04
   908.00    4.31
   910.00    3.73
   912.00    3.27
   914.00    2.92
   916.00    2.65
   918.00    2.44
   920.00    2.29
   922.00    2.18
   924.00    2.10
   926.00    2.04
   928.00    1.97
   930.00    1.89
   932.00    1.80
   934.00    1.71
   936.00    1.63
   938.00    1.57
   940.00    1.51
   942.00    1.45
   944.00    1.38
   946.00    1.31
   948.00    1.24
   950.00    1.19
   952.00    1.16
   954.00    1.14
   956.00    1.14
   958.00    1.15
   960.00    1.18
   962.00    1.22
   964.00    1.24
   966.00    1.25
   968.00    1.22
   970.00    1.18
   972.00    1.12
   974.00    1.06
   976.00    1.02
   978.00    0.99
   980.00    0.97
   982.00    0.95
   984.00    0.95
   986.00    0.95
   988.00    0.96
   990.00    0.97
   992.00    0.99
   994.00    1.02
   996.00    1.05
   998.00    1.09
  1000.00    1.13
  1002.00    1.19
  1004.00    1.25
  1006.00    1.33
  1008.00    1.42
  1010.00    1.53
  1012.00    1.66
  1014.00    1.82
  1016.00    2.01
  1018.00    2.25
  1020.00    2.54
  1022.00    2.90
  1024.00    3.33
  1026.00    3.82
  1028.00    4.34
  1030.00    4.78
  1032.00    5.06
  1034.00    5.12
  1036.00    5.03
  1038.00    4.90
  1040.00    4.82
  1042.00    4.85
  1044.00    5.02
  1046.00    5.35
  1048.00    5.86
  1050.00    6.58
  1052.00    7.55
  1054.00    8.83
  1056.00   10.47
  1058.00   12.53
  1060.00   14.98
  1062.00   17.64
  1064.00   20.05
  1066.00   21.58
  1068.00   21.67
  1070.00   20.32
  1072.00   18.04
  1074.00   15.48
  1076.00   13.12
  1078.00   11.16
  1080.00    9.62
  1082.00    8.42
  1084.00    7.46
  1086.00    6.62
  1088.00    5.86
  1090.00    5.19
  1092.00    4.61
  1094.00    4.14
  1096.00    3.76
  1098.00    3.46
  1100.00    3.20
  1102.00    2.97
  1104.00    2.74
  1106.00    2.54
  1108.00    2.36
  1110.00    2.20
  1112.00    2.09
  1114.00    1.99
  1116.00    1.93
  1118.00    1.89
  1120.00    1.88
  1122.00    1.89
  1124.00    1.93
  1126.00    1.99
  1128.00    2.09
  1130.00    2.21
  1132.00    2.37
  1134.00    2.55
  1136.00    2.78
  1138.00    3.07
  1140.00    3.44
  1142.00    3.90
  1144.00    4.42
  1146.00    4.91
  1148.00    5.27
  1150.00    5.40
  1152.00    5.30
  1154.00    5.09
  1156.00    4.91
  1158.00    4.83
  1160.00    4.90
  1162.00    5.08
  1164.00    5.27
  1166.00    5.36
  1168.00    5.21
  1170.00    4.83
  1172.00    4.30
  1174.00    3.75
  1176.00    3.26
  1178.00    2.84
  1180.00    2.51
  1182.00    2.25
  1184.00    2.05
  1186.00    1.90
  1188.00    1.78
  1190.00    1.69
  1192.00    1.63
  1194.00    1.59
  1196.00    1.57
  1198.00    1.56
  1200.00    1.57
  1202.00    1.60
  1204.00    1.64
  1206.00    1.70
  1208.00    1.78
  1210.00    1.87
  1212.00    2.00
  1214.00    2.15
  1216.00    2.35
  1218.00    2.59
  1220.00    2.89
  1222.00    3.28
  1224.00    3.76
  1226.00    4.37
  1228.00    5.15
  1230.00    6.13
  1232.00    7.32
  1234.00    8.68
  1236.00   10.06
  1238.00   11.15
  1240.00   11.58
  1242.00   11.18
  1244.00   10.12
  1246.00    8.77
  1248.00    7.44
  1250.00    6.29
  1252.00    5.34
  1254.00    4.60
  1256.00    4.03
  1258.00    3.59
  1260.00    3.26
  1262.00    3.02
  1264.00    2.85
  1266.00    2.73
  1268.00    2.67
  1270.00    2.66
  1272.00    2.71
  1274.00    2.80
  1276.00    2.96
  1278.00    3.19
  1280.00    3.50
  1282.00    3.88
  1284.00    4.32
  1286.00    4.77
  1288.00    5.12
  1290.00    5.32
  1292.00    5.34
  1294.00    5.24
  1296.00    5.11
  1298.00    5.00
  1300.00    4.98
  1302.00    5.08
  1304.00    5.29
  1306.00    5.58
  1308.00    5.84
  1310.00    5.96
  1312.00    5.90
  1314.00    5.70
  1316.00    5.48
  1318.00    5.32
  1320.00    5.30
  1322.00    5.43
  1324.00    5.71
  1326.00    6.10
  1328.00    6.55
  1330.00    6.95
  1332.00    7.23
  1334.00    7.40
  1336.00    7.57
  1338.00    7.86
  1340.00    8.38
  1342.00    9.20
  1344.00   10.32
  1346.00   11.71
  1348.00   13.20
  1350.00   14.46
  1352.00   15.12
  1354.00   15.01
  1356.00   14.32
  1358.00   13.47
  1360.00   12.79
  1362.00   12.46
  1364.00   12.43
  1366.00   12.53
  1368.00   12.47
  1370.00   11.99
  1372.00   11.06
  1374.00    9.87
  1376.00    8.67
  1378.00    7.61
  1380.00    6.74
  1382.00    6.06
  1384.00    5.56
  1386.00    5.19
  1388.00    4.94
  1390.00    4.80
  1392.00    4.74
  1394.00    4.76
  1396.00    4.86
  1398.00    5.05
  1400.00    5.33
  1402.00    5.71
  1404.00    6.22
  1406.00    6.88
  1408.00    7.73
  1410.00    8.82
  1412.00   10.18
  1414.00   11.85
  1416.00   13.78
  1418.00   15.79
  1420.00   17.52
  1422.00   18.55
  1424.00   18.69
  1426.00   18.18
  1428.00   17.50
  1430.00   17.07
  1432.00   17.11
  1434.00   17.70
  1436.00   18.83
  1438.00   20.40
  1440.00   22.29
  1442.00   24.43
  1444.00   26.73
  1446.00   28.95
  1448.00   30.51
  1450.00   30.77
  1452.00   29.56
  1454.00   27.37
  1456.00   24.99
  1458.00   23.06
  1460.00   21.90
  1462.00   21.59
  1464.00   22.08
  1466.00   23.12
  1468.00   24.23
  1470.00   24.71
  1472.00   23.98
  1474.00   22.01
  1476.00   19.28
  1478.00   16.42
  1480.00   13.83
  1482.00   11.63
  1484.00    9.85
  1486.00    8.42
  1488.00    7.27
  1490.00    6.35
  1492.00    5.60
  1494.00    4.98
  1496.00    4.48
  1498.00    4.05
  1500.00    3.70
  1502.00    3.39
  1504.00    3.14
  1506.00    2.92
  1508.00    2.73
  1510.00    2.56
  1512.00    2.42
  1514.00    2.30
  1516.00    2.19
  1518.00    2.10
  1520.00    2.02
  1522.00    1.96
  1524.00    1.90
  1526.00    1.85
  1528.00    1.82
  1530.00    1.79
  1532.00    1.77
  1534.00    1.76
  1536.00    1.76
  1538.00    1.76
  1540.00    1.78
  1542.00    1.81
  1544.00    1.85
  1546.00    1.90
  1548.00    1.97
  1550.00    2.06
  1552.00    2.16
  1554.00    2.29
  1556.00    2.45
  1558.00    2.65
  1560.00    2.89
  1562.00    3.19
  1564.00    3.56
  1566.00    4.02
  1568.00    4.61
  1570.00    5.33
  1572.00    6.23
  1574.00    7.30
  1576.00    8.49
  1578.00    9.64
  1580.00   10.55
  1582.00   11.01
  1584.00   11.06
  1586.00   10.94
  1588.00   10.93
  1590.00   11.25
  1592.00   12.00
  1594.00   13.22
  1596.00   14.82
  1598.00   16.55
  1600.00   17.89
  1602.00   18.29
  1604.00   17.45
  1606.00   15.64
  1608.00   13.41
  1610.00   11.22
  1612.00    9.31
  1614.00    7.73
  1616.00    6.47
  1618.00    5.46
  1620.00    4.67
  1622.00    4.03
  1624.00    3.51
  1626.00    3.09
  1628.00    2.74
  1630.00    2.45
  1632.00    2.20
  1634.00    2.00
  1636.00    1.82
  1638.00    1.67
  1640.00    1.53
  1642.00    1.42
  1644.00    1.32
  1646.00    1.23
  1648.00    1.15
  1650.00    1.08
  1652.00    1.01
  1654.00    0.96
  1656.00    0.90
  1658.00    0.86
  1660.00    0.81
  1662.00    0.78
  1664.00    0.74
  1666.00    0.71
  1668.00    0.68
  1670.00    0.65
  1672.00    0.62
  1674.00    0.60
  1676.00    0.58
  1678.00    0.56
  1680.00    0.54
  1682.00    0.52
  1684.00    0.50
  1686.00    0.48
  1688.00    0.47
  1690.00    0.45
  1692.00    0.44
  1694.00    0.43
  1696.00    0.42
  1698.00    0.41
  1700.00    0.39
  1702.00    0.38
  1704.00    0.37
  1706.00    0.37
  1708.00    0.36
  1710.00    0.35
  1712.00    0.34
  1714.00    0.33
  1716.00    0.33
  1718.00    0.32
  1720.00    0.31
  1722.00    0.31
  1724.00    0.30
  1726.00    0.29
  1728.00    0.29
  1730.00    0.28
  1732.00    0.28
  1734.00    0.27
  1736.00    0.27
  1738.00    0.26
  1740.00    0.26
  1742.00    0.25
  1744.00    0.25
  1746.00    0.25
  1748.00    0.24
  1750.00    0.24
  1752.00    0.23
  1754.00    0.23
  1756.00    0.23
  1758.00    0.22
  1760.00    0.22
  1762.00    0.22
  1764.00    0.21
  1766.00    0.21
  1768.00    0.21
  1770.00    0.21
  1772.00    0.20
  1774.00    0.20
  1776.00    0.20
  1778.00    0.20
  1780.00    0.19
  1782.00    0.19
  1784.00    0.19
  1786.00    0.19
  1788.00    0.19
  1790.00    0.18
  1792.00    0.18
  1794.00    0.18
  1796.00    0.18
  1798.00    0.18
  1800.00    0.17
  1802.00    0.17
  1804.00    0.17
  1806.00    0.17
  1808.00    0.17
  1810.00    0.17
  1812.00    0.16
  1814.00    0.16
  1816.00    0.16
  1818.00    0.16
  1820.00    0.16
  1822.00    0.16
  1824.00    0.16
  1826.00    0.15
  1828.00    0.15
  1830.00    0.15
  1832.00    0.15
  1834.00    0.15
  1836.00    0.15
  1838.00    0.15
  1840.00    0.15
  1842.00    0.14
  1844.00    0.14
  1846.00    0.14
  1848.00    0.14
  1850.00    0.14
  1852.00    0.14
  1854.00    0.14
  1856.00    0.14
  1858.00    0.14
  1860.00    0.14
  1862.00    0.13
  1864.00    0.13
  1866.00    0.13
  1868.00    0.13
  1870.00    0.13
  1872.00    0.13
  1874.00    0.13
  1876.00    0.13
  1878.00    0.13
  1880.00    0.13
  1882.00    0.13
  1884.00    0.13
  1886.00    0.13
  1888.00    0.13
  1890.00    0.12
  1892.00    0.12
  1894.00    0.12
  1896.00    0.12
  1898.00    0.12
  1900.00    0.12
  1902.00    0.12
  1904.00    0.12
  1906.00    0.12
  1908.00    0.12
  1910.00    0.12
  1912.00    0.12
  1914.00    0.12
  1916.00    0.12
  1918.00    0.12
  1920.00    0.12
  1922.00    0.12
  1924.00    0.12
  1926.00    0.12
  1928.00    0.11
  1930.00    0.11
  1932.00    0.11
  1934.00    0.11
  1936.00    0.11
  1938.00    0.11
  1940.00    0.11
  1942.00    0.11
  1944.00    0.11
  1946.00    0.11
  1948.00    0.11
  1950.00    0.11
  1952.00    0.11
  1954.00    0.11
  1956.00    0.11
  1958.00    0.11
  1960.00    0.11
  1962.00    0.11
  1964.00    0.11
  1966.00    0.11
  1968.00    0.11
  1970.00    0.11
  1972.00    0.11
  1974.00    0.11
  1976.00    0.11
  1978.00    0.11
  1980.00    0.11
  1982.00    0.11
  1984.00    0.11
  1986.00    0.11
  1988.00    0.11
  1990.00    0.11
  1992.00    0.11
  1994.00    0.11
  1996.00    0.11
  1998.00    0.11
  2000.00    0.11
  2002.00    0.11
  2004.00    0.10
  2006.00    0.10
  2008.00    0.10
  2010.00    0.10
  2012.00    0.10
  2014.00    0.10
  2016.00    0.10
  2018.00    0.10
  2020.00    0.10
  2022.00    0.10
  2024.00    0.10
  2026.00    0.10
  2028.00    0.10
  2030.00    0.10
  2032.00    0.10
  2034.00    0.10
  2036.00    0.10
  2038.00    0.10
  2040.00    0.10
  2042.00    0.10
  2044.00    0.10
  2046.00    0.10
  2048.00    0.10
  2050.00    0.10
  2052.00    0.10
  2054.00    0.10
  2056.00    0.10
  2058.00    0.10
  2060.00    0.10
  2062.00    0.10
  2064.00    0.10
  2066.00    0.10
  2068.00    0.10
  2070.00    0.10
  2072.00    0.10
  2074.00    0.10
  2076.00    0.10
  2078.00    0.10
  2080.00    0.10
  2082.00    0.10
  2084.00    0.10
  2086.00    0.10
  2088.00    0.10
  2090.00    0.10
  2092.00    0.10
  2094.00    0.10
  2096.00    0.10
  2098.00    0.10
  2100.00    0.10
  2102.00    0.10
  2104.00    0.10
  2106.00    0.10
  2108.00    0.10
  2110.00    0.10
  2112.00    0.10
  2114.00    0.11
  2116.00    0.11
  2118.00    0.11
  2120.00    0.11
  2122.00    0.11
  2124.00    0.11
  2126.00    0.11
  2128.00    0.11
  2130.00    0.11
  2132.00    0.11
  2134.00    0.11
  2136.00    0.11
  2138.00    0.11
  2140.00    0.11
  2142.00    0.11
  2144.00    0.11
  2146.00    0.11
  2148.00    0.11
  2150.00    0.11
  2152.00    0.11
  2154.00    0.11
  2156.00    0.11
  2158.00    0.11
  2160.00    0.11
  2162.00    0.11
  2164.00    0.11
  2166.00    0.11
  2168.00    0.11
  2170.00    0.11
  2172.00    0.11
  2174.00    0.11
  2176.00    0.11
  2178.00    0.11
  2180.00    0.11
  2182.00    0.11
  2184.00    0.11
  2186.00    0.11
  2188.00    0.11
  2190.00    0.11
  2192.00    0.11
  2194.00    0.11
  2196.00    0.11
  2198.00    0.11
  2200.00    0.11
  2202.00    0.11
  2204.00    0.12
  2206.00    0.12
  2208.00    0.12
  2210.00    0.12
  2212.00    0.12
  2214.00    0.12
  2216.00    0.12
  2218.00    0.12
  2220.00    0.12
  2222.00    0.12
  2224.00    0.12
  2226.00    0.12
  2228.00    0.12
  2230.00    0.12
  2232.00    0.12
  2234.00    0.12
  2236.00    0.12
  2238.00    0.12
  2240.00    0.12
  2242.00    0.12
  2244.00    0.12
  2246.00    0.12
  2248.00    0.12
  2250.00    0.12
  2252.00    0.12
  2254.00    0.13
  2256.00    0.13
  2258.00    0.13
  2260.00    0.13
  2262.00    0.13
  2264.00    0.13
  2266.00    0.13
  2268.00    0.13
  2270.00    0.13
  2272.00    0.13
  2274.00    0.13
  2276.00    0.13
  2278.00    0.13
  2280.00    0.13
  2282.00    0.13
  2284.00    0.13
  2286.00    0.13
  2288.00    0.13
  2290.00    0.13
  2292.00    0.14
  2294.00    0.14
  2296.00    0.14
  2298.00    0.14
  2300.00    0.14
  2302.00    0.14
  2304.00    0.14
  2306.00    0.14
  2308.00    0.14
  2310.00    0.14
  2312.00    0.14
  2314.00    0.14
  2316.00    0.14
  2318.00    0.14
  2320.00    0.14
  2322.00    0.14
  2324.00    0.15
  2326.00    0.15
  2328.00    0.15
  2330.00    0.15
  2332.00    0.15
  2334.00    0.15
  2336.00    0.15
  2338.00    0.15
  2340.00    0.15
  2342.00    0.15
  2344.00    0.15
  2346.00    0.15
  2348.00    0.15
  2350.00    0.16
  2352.00    0.16
  2354.00    0.16
  2356.00    0.16
  2358.00    0.16
  2360.00    0.16
  2362.00    0.16
  2364.00    0.16
  2366.00    0.16
  2368.00    0.16
  2370.00    0.16
  2372.00    0.17
  2374.00    0.17
  2376.00    0.17
  2378.00    0.17
  2380.00    0.17
  2382.00    0.17
  2384.00    0.17
  2386.00    0.17
  2388.00    0.17
  2390.00    0.17
  2392.00    0.18
  2394.00    0.18
  2396.00    0.18
  2398.00    0.18
  2400.00    0.18
  2402.00    0.18
  2404.00    0.18
  2406.00    0.18
  2408.00    0.18
  2410.00    0.19
  2412.00    0.19
  2414.00    0.19
  2416.00    0.19
  2418.00    0.19
  2420.00    0.19
  2422.00    0.19
  2424.00    0.19
  2426.00    0.20
  2428.00    0.20
  2430.00    0.20
  2432.00    0.20
  2434.00    0.20
  2436.00    0.20
  2438.00    0.20
  2440.00    0.21
  2442.00    0.21
  2444.00    0.21
  2446.00    0.21
  2448.00    0.21
  2450.00    0.21
  2452.00    0.21
  2454.00    0.22
  2456.00    0.22
  2458.00    0.22
  2460.00    0.22
  2462.00    0.22
  2464.00    0.22
  2466.00    0.23
  2468.00    0.23
  2470.00    0.23
  2472.00    0.23
  2474.00    0.23
  2476.00    0.23
  2478.00    0.24
  2480.00    0.24
  2482.00    0.24
  2484.00    0.24
  2486.00    0.24
  2488.00    0.25
  2490.00    0.25
  2492.00    0.25
  2494.00    0.25
  2496.00    0.25
  2498.00    0.26
  2500.00    0.26
  2502.00    0.26
  2504.00    0.26
  2506.00    0.26
  2508.00    0.27
  2510.00    0.27
  2512.00    0.27
  2514.00    0.27
  2516.00    0.28
  2518.00    0.28
  2520.00    0.28
  2522.00    0.28
  2524.00    0.29
  2526.00    0.29
  2528.00    0.29
  2530.00    0.29
  2532.00    0.30
  2534.00    0.30
  2536.00    0.30
  2538.00    0.31
  2540.00    0.31
  2542.00    0.31
  2544.00    0.31
  2546.00    0.32
  2548.00    0.32
  2550.00    0.32
  2552.00    0.33
  2554.00    0.33
  2556.00    0.33
  2558.00    0.34
  2560.00    0.34
  2562.00    0.34
  2564.00    0.35
  2566.00    0.35
  2568.00    0.35
  2570.00    0.36
  2572.00    0.36
  2574.00    0.37
  2576.00    0.37
  2578.00    0.37
  2580.00    0.38
  2582.00    0.38
  2584.00    0.39
  2586.00    0.39
  2588.00    0.39
  2590.00    0.40
  2592.00    0.40
  2594.00    0.41
  2596.00    0.41
  2598.00    0.42
  2600.00    0.42
  2602.00    0.43
  2604.00    0.43
  2606.00    0.44
  2608.00    0.44
  2610.00    0.45
  2612.00    0.45
  2614.00    0.46
  2616.00    0.46
  2618.00    0.47
  2620.00    0.48
  2622.00    0.48
  2624.00    0.49
  2626.00    0.49
  2628.00    0.50
  2630.00    0.51
  2632.00    0.51
  2634.00    0.52
  2636.00    0.53
  2638.00    0.53
  2640.00    0.54
  2642.00    0.55
  2644.00    0.56
  2646.00    0.56
  2648.00    0.57
  2650.00    0.58
  2652.00    0.59
  2654.00    0.59
  2656.00    0.60
  2658.00    0.61
  2660.00    0.62
  2662.00    0.63
  2664.00    0.64
  2666.00    0.65
  2668.00    0.66
  2670.00    0.67
  2672.00    0.68
  2674.00    0.69
  2676.00    0.70
  2678.00    0.71
  2680.00    0.72
  2682.00    0.73
  2684.00    0.75
  2686.00    0.76
  2688.00    0.77
  2690.00    0.78
  2692.00    0.80
  2694.00    0.81
  2696.00    0.82
  2698.00    0.84
  2700.00    0.85
  2702.00    0.87
  2704.00    0.88
  2706.00    0.90
  2708.00    0.91
  2710.00    0.93
  2712.00    0.95
  2714.00    0.97
  2716.00    0.98
  2718.00    1.00
  2720.00    1.02
  2722.00    1.04
  2724.00    1.06
  2726.00    1.09
  2728.00    1.11
  2730.00    1.13
  2732.00    1.15
  2734.00    1.18
  2736.00    1.20
  2738.00    1.23
  2740.00    1.26
  2742.00    1.28
  2744.00    1.31
  2746.00    1.34
  2748.00    1.37
  2750.00    1.41
  2752.00    1.44
  2754.00    1.47
  2756.00    1.51
  2758.00    1.55
  2760.00    1.59
  2762.00    1.63
  2764.00    1.67
  2766.00    1.71
  2768.00    1.76
  2770.00    1.81
  2772.00    1.85
  2774.00    1.91
  2776.00    1.96
  2778.00    2.02
  2780.00    2.08
  2782.00    2.14
  2784.00    2.21
  2786.00    2.28
  2788.00    2.35
  2790.00    2.42
  2792.00    2.51
  2794.00    2.59
  2796.00    2.68
  2798.00    2.77
  2800.00    2.88
  2802.00    2.98
  2804.00    3.09
  2806.00    3.21
  2808.00    3.34
  2810.00    3.48
  2812.00    3.62
  2814.00    3.78
  2816.00    3.95
  2818.00    4.13
  2820.00    4.32
  2822.00    4.53
  2824.00    4.75
  2826.00    5.00
  2828.00    5.27
  2830.00    5.55
  2832.00    5.87
  2834.00    6.22
  2836.00    6.60
  2838.00    7.02
  2840.00    7.49
  2842.00    8.01
  2844.00    8.59
  2846.00    9.25
  2848.00    9.99
  2850.00   10.83
  2852.00   11.78
  2854.00   12.89
  2856.00   14.16
  2858.00   15.65
  2860.00   17.40
  2862.00   19.47
  2864.00   21.96
  2866.00   24.96
  2868.00   28.62
  2870.00   33.13
  2872.00   38.76
  2874.00   45.81
  2876.00   54.69
  2878.00   65.84
  2880.00   79.61
  2882.00   95.93
  2884.00  113.73
  2886.00  130.35
  2888.00  141.71
  2890.00  144.14
  2892.00  136.86
  2894.00  122.54
  2896.00  105.36
  2898.00   88.72
  2900.00   74.32
  2902.00   62.60
  2904.00   53.36
  2906.00   46.17
  2908.00   40.62
  2910.00   36.35
  2912.00   33.10
  2914.00   30.66
  2916.00   28.87
  2918.00   27.62
  2920.00   26.84
  2922.00   26.48
  2924.00   26.51
  2926.00   26.90
  2928.00   27.68
  2930.00   28.85
  2932.00   30.46
  2934.00   32.56
  2936.00   35.25
  2938.00   38.62
  2940.00   42.85
  2942.00   48.14
  2944.00   54.77
  2946.00   63.12
  2948.00   73.67
  2950.00   87.02
  2952.00  103.86
  2954.00  124.78
  2956.00  149.90
  2958.00  178.10
  2960.00  206.16
  2962.00  228.90
  2964.00  241.50
  2966.00  242.63
  2968.00  234.09
  2970.00  217.95
  2972.00  195.86
  2974.00  170.24
  2976.00  144.36
  2978.00  120.86
  2980.00  100.98
  2982.00   84.83
  2984.00   71.97
  2986.00   61.80
  2988.00   53.78
  2990.00   47.45
  2992.00   42.47
  2994.00   38.57
  2996.00   35.57
  2998.00   33.34
  3000.00   31.81
  3002.00   30.94
  3004.00   30.73
  3006.00   31.22
  3008.00   32.45
  3010.00   34.48
  3012.00   37.28
  3014.00   40.67
  3016.00   44.20
  3018.00   47.31
  3020.00   49.62
  3022.00   51.03
  3024.00   51.40
  3026.00   50.39
  3028.00   47.85
  3030.00   44.33
  3032.00   40.74
  3034.00   37.87
  3036.00   36.12
  3038.00   35.61
  3040.00   36.26
  3042.00   37.71
  3044.00   39.25
  3046.00   39.84
  3048.00   38.64
  3050.00   35.59
  3052.00   31.43
  3054.00   27.08
  3056.00   23.12
  3058.00   19.76
  3060.00   17.01
  3062.00   14.78
  3064.00   12.98
  3066.00   11.51
  3068.00   10.31
  3070.00    9.30
  3072.00    8.46
  3074.00    7.74
  3076.00    7.13
  3078.00    6.60
  3080.00    6.14
  3082.00    5.73
  3084.00    5.37
  3086.00    5.05
  3088.00    4.76
  3090.00    4.50
  3092.00    4.27
  3094.00    4.05
  3096.00    3.86
  3098.00    3.68
  3100.00    3.51
  3102.00    3.36
  3104.00    3.22
  3106.00    3.09
  3108.00    2.97
  3110.00    2.85
  3112.00    2.75
  3114.00    2.65
  3116.00    2.55
  3118.00    2.47
  3120.00    2.38
  3122.00    2.31
  3124.00    2.23
  3126.00    2.16
  3128.00    2.09
  3130.00    2.03
  3132.00    1.97
  3134.00    1.91
  3136.00    1.86
  3138.00    1.81
  3140.00    1.76
  3142.00    1.71
  3144.00    1.67
  3146.00    1.62
  3148.00    1.58
  3150.00    1.54
  3152.00    1.50
  3154.00    1.47
  3156.00    1.43
  3158.00    1.40
  3160.00    1.36
  3162.00    1.33
  3164.00    1.30
  3166.00    1.27
  3168.00    1.25
  3170.00    1.22
  3172.00    1.19
  3174.00    1.17
  3176.00    1.14
  3178.00    1.12
  3180.00    1.10
  3182.00    1.07
  3184.00    1.05
  3186.00    1.03
  3188.00    1.01
  3190.00    0.99
  3192.00    0.97
  3194.00    0.95
  3196.00    0.94
  3198.00    0.92
  3200.00    0.90
  3202.00    0.89
  3204.00    0.87
  3206.00    0.86
  3208.00    0.84
  3210.00    0.83
  3212.00    0.81
  3214.00    0.80
  3216.00    0.78
  3218.00    0.77
  3220.00    0.76
  3222.00    0.75
  3224.00    0.73
  3226.00    0.72
  3228.00    0.71
  3230.00    0.70
  3232.00    0.69
  3234.00    0.68
  3236.00    0.67
  3238.00    0.66
  3240.00    0.65
  3242.00    0.64
  3244.00    0.63
  3246.00    0.62
  3248.00    0.61
  3250.00    0.60
  3252.00    0.59
  3254.00    0.58
  3256.00    0.58
  3258.00    0.57
  3260.00    0.56
  3262.00    0.55
  3264.00    0.54
  3266.00    0.54
  3268.00    0.53
  3270.00    0.52
  3272.00    0.52
  3274.00    0.51
  3276.00    0.50
  3278.00    0.50
  3280.00    0.49
  3282.00    0.48
  3284.00    0.48
  3286.00    0.47
  3288.00    0.46
  3290.00    0.46
  3292.00    0.45
  3294.00    0.45
  3296.00    0.44
  3298.00    0.44
  3300.00    0.43
